#MeasParameter
&HWS=C:\RAYFLEX\PTS.hws.HWS
&Sample=
&Material=
&Operator=USER_1
&Anode=Cr	&Filter=V	&kV=40	&mA=40
&Detector=ScintCount

#TextureParameter
&H=2	&K=2	&L=0
&Mode=REFL
&Raster=CIRCULAR
&AlphaStart=0.000	&AlphaEnd=70.000	&AlphaStep=3.500
&BetaStart=0.000	&BetaEnd=360.000	&BetaStep=3.600
&2Theta=101.000	&Window=0.000	&Step=0.000
&Time=10.0	&Counts=0
&BGLeft=99.000	&BGRight=0.000	&BGTime=10.0	&BGCounts=0

#Values
&NoValues=2121
   0.000	   0.000	    34.300	    28.600
   0.000	   3.600	    33.500	    28.600
   0.000	   7.200	    36.600	    28.600
   0.000	  10.800	    32.300	    28.600
   0.000	  14.400	    34.000	    28.600
   0.000	  18.000	    31.300	    28.600
   0.000	  21.600	    33.300	    28.600
   0.000	  25.200	    36.200	    28.600
   0.000	  28.800	    34.900	    28.600
   0.000	  32.400	    31.600	    28.600
   0.000	  36.000	    33.300	    28.600
   0.000	  39.600	    33.000	    28.600
   0.000	  43.200	    32.300	    28.600
   0.000	  46.800	    30.500	    28.600
   0.000	  50.400	    33.400	    28.600
   0.000	  54.000	    33.800	    28.600
   0.000	  57.600	    35.500	    28.600
   0.000	  61.200	    36.300	    28.600
   0.000	  64.800	    32.900	    28.600
   0.000	  68.400	    36.900	    28.600
   0.000	  72.000	    37.500	    28.600
   0.000	  75.600	    32.500	    28.600
   0.000	  79.200	    34.400	    28.600
   0.000	  82.800	    32.600	    28.600
   0.000	  86.400	    33.700	    28.600
   0.000	  90.000	    32.700	    28.600
   0.000	  93.600	    32.200	    28.600
   0.000	  97.200	    34.100	    28.600
   0.000	 100.800	    34.600	    28.600
   0.000	 104.400	    29.600	    28.600
   0.000	 108.000	    34.700	    28.600
   0.000	 111.600	    32.900	    28.600
   0.000	 115.200	    34.100	    28.600
   0.000	 118.800	    35.900	    28.600
   0.000	 122.400	    31.900	    28.600
   0.000	 126.000	    33.200	    28.600
   0.000	 129.600	    34.100	    28.600
   0.000	 133.200	    34.200	    28.600
   0.000	 136.800	    32.200	    28.600
   0.000	 140.400	    36.000	    28.600
   0.000	 144.000	    32.200	    28.600
   0.000	 147.600	    32.400	    28.600
   0.000	 151.200	    32.300	    28.600
   0.000	 154.800	    33.400	    28.600
   0.000	 158.400	    29.200	    28.600
   0.000	 162.000	    28.000	    28.600
   0.000	 165.600	    31.000	    28.600
   0.000	 169.200	    32.000	    28.600
   0.000	 172.800	    30.400	    28.600
   0.000	 176.400	    34.600	    28.600
   0.000	 180.000	    31.800	    28.600
   0.000	 183.600	    33.000	    28.600
   0.000	 187.200	    32.400	    28.600
   0.000	 190.800	    32.300	    28.600
   0.000	 194.400	    31.700	    28.600
   0.000	 198.000	    30.400	    28.600
   0.000	 201.600	    32.000	    28.600
   0.000	 205.200	    31.400	    28.600
   0.000	 208.800	    32.300	    28.600
   0.000	 212.400	    36.400	    28.600
   0.000	 216.000	    32.900	    28.600
   0.000	 219.600	    30.800	    28.600
   0.000	 223.200	    30.600	    28.600
   0.000	 226.800	    33.000	    28.600
   0.000	 230.400	    35.900	    28.600
   0.000	 234.000	    29.700	    28.600
   0.000	 237.600	    30.900	    28.600
   0.000	 241.200	    33.000	    28.600
   0.000	 244.800	    30.800	    28.600
   0.000	 248.400	    29.300	    28.600
   0.000	 252.000	    30.800	    28.600
   0.000	 255.600	    31.000	    28.600
   0.000	 259.200	    27.700	    28.600
   0.000	 262.800	    31.100	    28.600
   0.000	 266.400	    31.100	    28.600
   0.000	 270.000	    31.900	    28.600
   0.000	 273.600	    30.400	    28.600
   0.000	 277.200	    32.900	    28.600
   0.000	 280.800	    33.000	    28.600
   0.000	 284.400	    33.500	    28.600
   0.000	 288.000	    36.000	    28.600
   0.000	 291.600	    31.400	    28.600
   0.000	 295.200	    34.400	    28.600
   0.000	 298.800	    31.100	    28.600
   0.000	 302.400	    34.900	    28.600
   0.000	 306.000	    34.300	    28.600
   0.000	 309.600	    35.200	    28.600
   0.000	 313.200	    33.100	    28.600
   0.000	 316.800	    32.200	    28.600
   0.000	 320.400	    31.400	    28.600
   0.000	 324.000	    32.900	    28.600
   0.000	 327.600	    32.200	    28.600
   0.000	 331.200	    33.200	    28.600
   0.000	 334.800	    30.100	    28.600
   0.000	 338.400	    32.100	    28.600
   0.000	 342.000	    34.200	    28.600
   0.000	 345.600	    33.500	    28.600
   0.000	 349.200	    36.300	    28.600
   0.000	 352.800	    36.000	    28.600
   0.000	 356.400	    36.100	    28.600
   0.000	 360.000	    37.000	    28.600
   3.500	   0.000	    32.900	    30.100
   3.500	   3.600	    29.700	    30.100
   3.500	   7.200	    34.200	    30.100
   3.500	  10.800	    37.200	    30.100
   3.500	  14.400	    35.700	    30.100
   3.500	  18.000	    33.900	    30.100
   3.500	  21.600	    32.400	    30.100
   3.500	  25.200	    34.200	    30.100
   3.500	  28.800	    33.800	    30.100
   3.500	  32.400	    32.900	    30.100
   3.500	  36.000	    33.700	    30.100
   3.500	  39.600	    30.400	    30.100
   3.500	  43.200	    35.400	    30.100
   3.500	  46.800	    29.800	    30.100
   3.500	  50.400	    33.600	    30.100
   3.500	  54.000	    31.800	    30.100
   3.500	  57.600	    33.100	    30.100
   3.500	  61.200	    33.400	    30.100
   3.500	  64.800	    38.800	    30.100
   3.500	  68.400	    31.800	    30.100
   3.500	  72.000	    32.600	    30.100
   3.500	  75.600	    35.200	    30.100
   3.500	  79.200	    37.900	    30.100
   3.500	  82.800	    37.000	    30.100
   3.500	  86.400	    31.200	    30.100
   3.500	  90.000	    31.200	    30.100
   3.500	  93.600	    32.000	    30.100
   3.500	  97.200	    33.000	    30.100
   3.500	 100.800	    31.500	    30.100
   3.500	 104.400	    32.800	    30.100
   3.500	 108.000	    30.700	    30.100
   3.500	 111.600	    28.700	    30.100
   3.500	 115.200	    32.400	    30.100
   3.500	 118.800	    31.700	    30.100
   3.500	 122.400	    31.500	    30.100
   3.500	 126.000	    32.200	    30.100
   3.500	 129.600	    32.400	    30.100
   3.500	 133.200	    32.500	    30.100
   3.500	 136.800	    30.100	    30.100
   3.500	 140.400	    32.600	    30.100
   3.500	 144.000	    31.800	    30.100
   3.500	 147.600	    31.800	    30.100
   3.500	 151.200	    31.300	    30.100
   3.500	 154.800	    31.000	    30.100
   3.500	 158.400	    29.600	    30.100
   3.500	 162.000	    31.900	    30.100
   3.500	 165.600	    32.000	    30.100
   3.500	 169.200	    29.600	    30.100
   3.500	 172.800	    28.700	    30.100
   3.500	 176.400	    32.600	    30.100
   3.500	 180.000	    28.000	    30.100
   3.500	 183.600	    31.800	    30.100
   3.500	 187.200	    32.200	    30.100
   3.500	 190.800	    28.500	    30.100
   3.500	 194.400	    30.700	    30.100
   3.500	 198.000	    31.400	    30.100
   3.500	 201.600	    33.400	    30.100
   3.500	 205.200	    31.700	    30.100
   3.500	 208.800	    32.800	    30.100
   3.500	 212.400	    30.500	    30.100
   3.500	 216.000	    32.600	    30.100
   3.500	 219.600	    30.500	    30.100
   3.500	 223.200	    30.600	    30.100
   3.500	 226.800	    32.900	    30.100
   3.500	 230.400	    32.900	    30.100
   3.500	 234.000	    31.700	    30.100
   3.500	 237.600	    32.900	    30.100
   3.500	 241.200	    32.800	    30.100
   3.500	 244.800	    28.800	    30.100
   3.500	 248.400	    35.500	    30.100
   3.500	 252.000	    30.600	    30.100
   3.500	 255.600	    31.800	    30.100
   3.500	 259.200	    31.100	    30.100
   3.500	 262.800	    29.800	    30.100
   3.500	 266.400	    34.600	    30.100
   3.500	 270.000	    32.200	    30.100
   3.500	 273.600	    31.200	    30.100
   3.500	 277.200	    32.200	    30.100
   3.500	 280.800	    34.800	    30.100
   3.500	 284.400	    33.500	    30.100
   3.500	 288.000	    31.500	    30.100
   3.500	 291.600	    33.900	    30.100
   3.500	 295.200	    32.800	    30.100
   3.500	 298.800	    33.000	    30.100
   3.500	 302.400	    35.200	    30.100
   3.500	 306.000	    32.000	    30.100
   3.500	 309.600	    35.300	    30.100
   3.500	 313.200	    33.300	    30.100
   3.500	 316.800	    33.700	    30.100
   3.500	 320.400	    32.700	    30.100
   3.500	 324.000	    30.400	    30.100
   3.500	 327.600	    31.800	    30.100
   3.500	 331.200	    34.300	    30.100
   3.500	 334.800	    33.400	    30.100
   3.500	 338.400	    34.800	    30.100
   3.500	 342.000	    32.300	    30.100
   3.500	 345.600	    32.100	    30.100
   3.500	 349.200	    32.200	    30.100
   3.500	 352.800	    29.900	    30.100
   3.500	 356.400	    33.000	    30.100
   3.500	 360.000	    32.700	    30.100
   7.000	   0.000	    30.700	    30.700
   7.000	   3.600	    32.700	    30.700
   7.000	   7.200	    35.100	    30.700
   7.000	  10.800	    34.600	    30.700
   7.000	  14.400	    34.000	    30.700
   7.000	  18.000	    34.400	    30.700
   7.000	  21.600	    35.900	    30.700
   7.000	  25.200	    33.100	    30.700
   7.000	  28.800	    36.400	    30.700
   7.000	  32.400	    35.500	    30.700
   7.000	  36.000	    35.800	    30.700
   7.000	  39.600	    33.000	    30.700
   7.000	  43.200	    34.000	    30.700
   7.000	  46.800	    33.000	    30.700
   7.000	  50.400	    33.400	    30.700
   7.000	  54.000	    33.300	    30.700
   7.000	  57.600	    36.900	    30.700
   7.000	  61.200	    30.400	    30.700
   7.000	  64.800	    29.600	    30.700
   7.000	  68.400	    27.400	    30.700
   7.000	  72.000	    34.200	    30.700
   7.000	  75.600	    36.100	    30.700
   7.000	  79.200	    36.200	    30.700
   7.000	  82.800	    30.000	    30.700
   7.000	  86.400	    32.100	    30.700
   7.000	  90.000	    33.600	    30.700
   7.000	  93.600	    36.500	    30.700
   7.000	  97.200	    33.900	    30.700
   7.000	 100.800	    33.200	    30.700
   7.000	 104.400	    30.800	    30.700
   7.000	 108.000	    31.300	    30.700
   7.000	 111.600	    31.500	    30.700
   7.000	 115.200	    32.200	    30.700
   7.000	 118.800	    30.900	    30.700
   7.000	 122.400	    34.100	    30.700
   7.000	 126.000	    32.800	    30.700
   7.000	 129.600	    31.600	    30.700
   7.000	 133.200	    32.500	    30.700
   7.000	 136.800	    31.900	    30.700
   7.000	 140.400	    32.000	    30.700
   7.000	 144.000	    34.500	    30.700
   7.000	 147.600	    30.900	    30.700
   7.000	 151.200	    32.000	    30.700
   7.000	 154.800	    27.700	    30.700
   7.000	 158.400	    33.700	    30.700
   7.000	 162.000	    30.500	    30.700
   7.000	 165.600	    30.100	    30.700
   7.000	 169.200	    35.200	    30.700
   7.000	 172.800	    31.000	    30.700
   7.000	 176.400	    32.700	    30.700
   7.000	 180.000	    30.600	    30.700
   7.000	 183.600	    32.200	    30.700
   7.000	 187.200	    32.700	    30.700
   7.000	 190.800	    32.300	    30.700
   7.000	 194.400	    31.100	    30.700
   7.000	 198.000	    32.900	    30.700
   7.000	 201.600	    32.000	    30.700
   7.000	 205.200	    30.600	    30.700
   7.000	 208.800	    29.700	    30.700
   7.000	 212.400	    30.800	    30.700
   7.000	 216.000	    28.100	    30.700
   7.000	 219.600	    29.100	    30.700
   7.000	 223.200	    29.800	    30.700
   7.000	 226.800	    29.000	    30.700
   7.000	 230.400	    31.800	    30.700
   7.000	 234.000	    34.900	    30.700
   7.000	 237.600	    32.100	    30.700
   7.000	 241.200	    30.300	    30.700
   7.000	 244.800	    33.300	    30.700
   7.000	 248.400	    32.600	    30.700
   7.000	 252.000	    32.500	    30.700
   7.000	 255.600	    28.200	    30.700
   7.000	 259.200	    31.200	    30.700
   7.000	 262.800	    30.300	    30.700
   7.000	 266.400	    29.900	    30.700
   7.000	 270.000	    31.000	    30.700
   7.000	 273.600	    30.600	    30.700
   7.000	 277.200	    32.500	    30.700
   7.000	 280.800	    30.200	    30.700
   7.000	 284.400	    34.100	    30.700
   7.000	 288.000	    29.600	    30.700
   7.000	 291.600	    31.200	    30.700
   7.000	 295.200	    33.100	    30.700
   7.000	 298.800	    31.300	    30.700
   7.000	 302.400	    35.100	    30.700
   7.000	 306.000	    35.200	    30.700
   7.000	 309.600	    33.400	    30.700
   7.000	 313.200	    31.100	    30.700
   7.000	 316.800	    35.100	    30.700
   7.000	 320.400	    33.300	    30.700
   7.000	 324.000	    32.900	    30.700
   7.000	 327.600	    32.100	    30.700
   7.000	 331.200	    32.000	    30.700
   7.000	 334.800	    31.500	    30.700
   7.000	 338.400	    32.400	    30.700
   7.000	 342.000	    31.800	    30.700
   7.000	 345.600	    33.000	    30.700
   7.000	 349.200	    33.400	    30.700
   7.000	 352.800	    37.900	    30.700
   7.000	 356.400	    33.300	    30.700
   7.000	 360.000	    35.300	    30.700
  10.500	   0.000	    31.900	    32.100
  10.500	   3.600	    33.700	    32.100
  10.500	   7.200	    33.000	    32.100
  10.500	  10.800	    32.800	    32.100
  10.500	  14.400	    36.500	    32.100
  10.500	  18.000	    32.900	    32.100
  10.500	  21.600	    33.700	    32.100
  10.500	  25.200	    36.900	    32.100
  10.500	  28.800	    33.800	    32.100
  10.500	  32.400	    33.400	    32.100
  10.500	  36.000	    36.700	    32.100
  10.500	  39.600	    35.200	    32.100
  10.500	  43.200	    34.600	    32.100
  10.500	  46.800	    34.500	    32.100
  10.500	  50.400	    36.900	    32.100
  10.500	  54.000	    33.500	    32.100
  10.500	  57.600	    34.700	    32.100
  10.500	  61.200	    32.000	    32.100
  10.500	  64.800	    31.400	    32.100
  10.500	  68.400	    35.700	    32.100
  10.500	  72.000	    34.100	    32.100
  10.500	  75.600	    29.500	    32.100
  10.500	  79.200	    32.200	    32.100
  10.500	  82.800	    32.500	    32.100
  10.500	  86.400	    32.000	    32.100
  10.500	  90.000	    32.700	    32.100
  10.500	  93.600	    34.800	    32.100
  10.500	  97.200	    34.600	    32.100
  10.500	 100.800	    29.900	    32.100
  10.500	 104.400	    33.400	    32.100
  10.500	 108.000	    33.700	    32.100
  10.500	 111.600	    33.300	    32.100
  10.500	 115.200	    30.500	    32.100
  10.500	 118.800	    31.700	    32.100
  10.500	 122.400	    34.100	    32.100
  10.500	 126.000	    30.900	    32.100
  10.500	 129.600	    32.900	    32.100
  10.500	 133.200	    31.900	    32.100
  10.500	 136.800	    33.700	    32.100
  10.500	 140.400	    32.400	    32.100
  10.500	 144.000	    33.300	    32.100
  10.500	 147.600	    29.600	    32.100
  10.500	 151.200	    32.100	    32.100
  10.500	 154.800	    31.500	    32.100
  10.500	 158.400	    32.800	    32.100
  10.500	 162.000	    31.700	    32.100
  10.500	 165.600	    35.100	    32.100
  10.500	 169.200	    31.500	    32.100
  10.500	 172.800	    34.600	    32.100
  10.500	 176.400	    32.100	    32.100
  10.500	 180.000	    29.000	    32.100
  10.500	 183.600	    31.300	    32.100
  10.500	 187.200	    28.400	    32.100
  10.500	 190.800	    31.500	    32.100
  10.500	 194.400	    32.100	    32.100
  10.500	 198.000	    31.200	    32.100
  10.500	 201.600	    31.000	    32.100
  10.500	 205.200	    32.200	    32.100
  10.500	 208.800	    32.600	    32.100
  10.500	 212.400	    31.900	    32.100
  10.500	 216.000	    33.900	    32.100
  10.500	 219.600	    33.000	    32.100
  10.500	 223.200	    29.100	    32.100
  10.500	 226.800	    31.400	    32.100
  10.500	 230.400	    33.200	    32.100
  10.500	 234.000	    33.600	    32.100
  10.500	 237.600	    31.400	    32.100
  10.500	 241.200	    35.700	    32.100
  10.500	 244.800	    31.600	    32.100
  10.500	 248.400	    28.800	    32.100
  10.500	 252.000	    32.900	    32.100
  10.500	 255.600	    32.300	    32.100
  10.500	 259.200	    31.900	    32.100
  10.500	 262.800	    32.400	    32.100
  10.500	 266.400	    30.000	    32.100
  10.500	 270.000	    33.500	    32.100
  10.500	 273.600	    29.700	    32.100
  10.500	 277.200	    35.000	    32.100
  10.500	 280.800	    34.400	    32.100
  10.500	 284.400	    33.100	    32.100
  10.500	 288.000	    31.200	    32.100
  10.500	 291.600	    33.600	    32.100
  10.500	 295.200	    34.200	    32.100
  10.500	 298.800	    36.300	    32.100
  10.500	 302.400	    32.300	    32.100
  10.500	 306.000	    31.000	    32.100
  10.500	 309.600	    36.500	    32.100
  10.500	 313.200	    32.100	    32.100
  10.500	 316.800	    36.900	    32.100
  10.500	 320.400	    32.500	    32.100
  10.500	 324.000	    31.600	    32.100
  10.500	 327.600	    33.700	    32.100
  10.500	 331.200	    32.200	    32.100
  10.500	 334.800	    34.400	    32.100
  10.500	 338.400	    34.300	    32.100
  10.500	 342.000	    31.400	    32.100
  10.500	 345.600	    29.800	    32.100
  10.500	 349.200	    31.400	    32.100
  10.500	 352.800	    37.700	    32.100
  10.500	 356.400	    35.700	    32.100
  10.500	 360.000	    36.000	    32.100
  14.000	   0.000	    33.900	    30.100
  14.000	   3.600	    35.200	    30.100
  14.000	   7.200	    35.500	    30.100
  14.000	  10.800	    35.300	    30.100
  14.000	  14.400	    38.000	    30.100
  14.000	  18.000	    34.100	    30.100
  14.000	  21.600	    34.700	    30.100
  14.000	  25.200	    30.500	    30.100
  14.000	  28.800	    32.100	    30.100
  14.000	  32.400	    36.000	    30.100
  14.000	  36.000	    34.000	    30.100
  14.000	  39.600	    33.700	    30.100
  14.000	  43.200	    37.100	    30.100
  14.000	  46.800	    33.100	    30.100
  14.000	  50.400	    36.100	    30.100
  14.000	  54.000	    36.000	    30.100
  14.000	  57.600	    33.200	    30.100
  14.000	  61.200	    32.900	    30.100
  14.000	  64.800	    35.400	    30.100
  14.000	  68.400	    34.500	    30.100
  14.000	  72.000	    29.000	    30.100
  14.000	  75.600	    34.500	    30.100
  14.000	  79.200	    38.300	    30.100
  14.000	  82.800	    34.100	    30.100
  14.000	  86.400	    35.100	    30.100
  14.000	  90.000	    34.400	    30.100
  14.000	  93.600	    33.500	    30.100
  14.000	  97.200	    36.000	    30.100
  14.000	 100.800	    33.300	    30.100
  14.000	 104.400	    35.100	    30.100
  14.000	 108.000	    34.000	    30.100
  14.000	 111.600	    33.500	    30.100
  14.000	 115.200	    32.800	    30.100
  14.000	 118.800	    35.600	    30.100
  14.000	 122.400	    35.300	    30.100
  14.000	 126.000	    36.900	    30.100
  14.000	 129.600	    34.100	    30.100
  14.000	 133.200	    36.200	    30.100
  14.000	 136.800	    35.000	    30.100
  14.000	 140.400	    31.100	    30.100
  14.000	 144.000	    31.500	    30.100
  14.000	 147.600	    32.400	    30.100
  14.000	 151.200	    34.600	    30.100
  14.000	 154.800	    33.300	    30.100
  14.000	 158.400	    30.800	    30.100
  14.000	 162.000	    34.600	    30.100
  14.000	 165.600	    33.700	    30.100
  14.000	 169.200	    35.900	    30.100
  14.000	 172.800	    32.500	    30.100
  14.000	 176.400	    31.900	    30.100
  14.000	 180.000	    30.100	    30.100
  14.000	 183.600	    31.900	    30.100
  14.000	 187.200	    32.800	    30.100
  14.000	 190.800	    31.200	    30.100
  14.000	 194.400	    30.100	    30.100
  14.000	 198.000	    34.700	    30.100
  14.000	 201.600	    33.800	    30.100
  14.000	 205.200	    33.500	    30.100
  14.000	 208.800	    33.400	    30.100
  14.000	 212.400	    32.600	    30.100
  14.000	 216.000	    28.900	    30.100
  14.000	 219.600	    31.900	    30.100
  14.000	 223.200	    32.500	    30.100
  14.000	 226.800	    31.300	    30.100
  14.000	 230.400	    33.200	    30.100
  14.000	 234.000	    32.000	    30.100
  14.000	 237.600	    30.500	    30.100
  14.000	 241.200	    32.400	    30.100
  14.000	 244.800	    31.100	    30.100
  14.000	 248.400	    33.100	    30.100
  14.000	 252.000	    30.400	    30.100
  14.000	 255.600	    35.000	    30.100
